#Acq. time (s)=	3
#Accumulations=	5
#Range (cm-¹)=	-400...1000
#Windows=	3
#Autofocus=	Off
#AutoExposure=	Off
#Spike filter=	Off
#Delay time (s)=	0
#Binning=	1
#Readout mode=	Signal
#DeNoise=	Off
#ICS correction=	Off
#Dark correction=	Off
#Inst. Process=	Off
#Instrument=	LabRAM HR Evol
#Detector=	Emulator CCD
#Objective=	x100
#Grating=	1800 gr/mm
#ND Filter=	100%
#Laser (nm)=	512 
#Slit=	150.001
#Hole=	70.0087
#Project=	A
#Sample=	B
#Site=	C
#Title=	D_19
#Remark=	
#Date=	05.10.2017 11:30
#Acquired=	05.10.2017 11:30:40
-398.136	404.2
-397.506	426.604
-396.875	393.008
-396.245	392.011
-395.615	399.015
-394.985	387.219
-394.356	378.223
-393.726	413.427
-393.096	394.63
-392.466	412.234
-391.836	404.638
-391.206	439.842
-390.578	410.645
-389.948	402.649
-389.318	405.453
-388.688	400.057
-388.06	382.061
-387.43	380.464
-386.801	389.268
-386.171	412.872
-385.543	390.276
-384.913	389.28
-384.284	413.883
-383.656	418.487
-383.026	397.491
-382.397	362.095
-381.769	403.499
-381.14	390.102
-380.511	386.506
-379.883	391.11
-379.254	409.114
-378.625	406.318
-377.997	393.721
-377.368	372.325
-376.74	419.329
-376.111	377.933
-375.483	402.336
-374.855	403.14
-374.227	403.144
-373.598	391.148
-372.971	394.752
-372.342	412.155
-371.715	397.159
-371.086	382.563
-370.459	382.167
-369.83	384.971
-369.203	374.574
-368.574	391.978
-367.947	378.782
-367.32	408.186
-366.692	381.589
-366.065	420.193
-365.436	408.397
-364.809	385.601
-364.182	374.205
-363.554	400.008
-362.927	394.812
-362.301	395.816
-361.673	399.22
-361.046	415.824
-360.419	370.827
-359.791	405.831
-359.165	414.435
-358.538	387.639
-357.911	403.443
-357.284	381.646
-356.657	393.25
-356.031	367.854
-355.404	378.858
-354.778	415.862
-354.15	396.665
-353.524	389.469
-352.898	405.673
-352.272	414.477
-351.646	393.28
-351.019	373.284
-350.392	407.688
-349.766	374.892
-349.14	381.896
-348.514	401.299
-347.888	389.103
-347.262	378.907
-346.636	402.911
-346.011	406.515
-345.385	398.118
-344.759	377.322
-344.133	385.126
-343.508	387.33
-342.882	370.934
-342.257	405.337
-341.631	419.941
-341.005	393.745
-340.38	382.149
-339.755	393.352
-339.129	395.156
-338.504	394.96
-337.879	413.364
-337.253	403.568
-336.628	392.571
-336.004	373.975
-335.379	398.579
-334.754	369.983
-334.129	398.587
-333.504	391.59
-332.879	372.194
-332.255	368.798
-331.63	379.202
-331.005	390.006
-330.38	397.609
-329.756	388.013
-329.132	384.217
-328.507	411.021
-327.883	403.024
-327.258	411.628
-326.635	403.232
-326.01	403.236
-325.386	371.04
-324.762	391.643
-324.138	387.847
-323.514	390.251
-322.89	377.255
-322.266	402.659
-321.642	392.662
-321.019	377.866
-320.395	366.47
-319.77	380.074
-319.147	401.878
-318.523	391.681
-317.901	414.085
-317.277	380.489
-316.654	376.293
-316.03	389.096
-315.407	370.7
-314.783	388.704
-314.16	384.708
-313.537	384.912
-312.914	390.315
-312.291	397.319
-311.668	382.723
-311.045	383.727
-310.422	409.531
-309.799	388.134
-309.176	373.138
-308.553	396.942
-307.931	382.146
-307.309	383.95
-306.685	398.153
-306.063	395.157
-305.44	375.561
-304.818	384.565
-304.196	400.968
-303.573	393.372
-302.951	379.776
-302.329	381.78
-301.707	360.384
-301.084	390.387
-300.462	395.391
-299.841	392.195
-299.219	389.399
-298.596	373.203
-297.975	405.206
-297.353	376.61
-296.732	393.414
-296.109	381.818
-295.487	384.822
-294.866	400.425
-294.245	385.629
-293.623	385.033
-293.002	363.237
-292.38	364.841
-291.759	365.444
-291.137	379.448
-290.516	394.252
-289.895	410.056
-289.274	380.459
-288.653	364.063
-288.032	390.867
-287.411	397.871
-286.79	403.875
-286.169	380.078
-285.549	380.282
-284.928	395.486
-284.307	387.49
-283.686	382.694
-283.066	388.897
-282.445	365.501
-281.825	400.705
-281.204	385.509
-280.584	383.313
-279.963	378.916
-279.343	372.32
-278.722	392.724
-278.102	387.128
-277.482	390.331
-276.863	383.935
-276.242	380.939
-275.622	387.743
-275.002	381.147
-274.382	374.75
-273.762	371.154
-273.143	388.958
-272.523	373.962
-271.903	366.366
-271.283	375.569
-270.664	399.773
-270.045	385.177
-269.425	372.181
-268.805	364.785
-268.186	389.588
-267.567	363.792
-266.947	399.396
-266.329	379.8
-265.709	391.203
-265.09	374.407
-264.471	367.211
-263.852	358.415
-263.232	369.219
-262.614	373.222
-261.995	361.626
-261.377	347.43
-260.758	368.034
-260.138	365.038
-259.52	398.241
-258.901	391.445
-258.283	387.449
-257.664	375.253
-257.046	363.457
-256.427	384.26
-255.81	366.064
-255.191	369.868
-254.573	402.872
-253.954	388.875
-253.337	350.079
-252.718	373.883
-252.1	389.287
-251.482	385.691
-250.864	376.294
-250.247	397.098
-249.628	371.902
-249.011	367.106
-248.394	384.11
-247.775	375.913
-247.158	372.317
-246.541	376.521
-245.922	397.125
-245.305	376.329
-244.688	375.332
-244.07	390.736
-243.453	381.34
-242.836	352.744
-242.218	373.347
-241.601	392.751
-240.984	384.155
-240.368	407.759
-239.751	371.363
-239.133	369.566
-238.516	358.17
-237.9	387.974
-237.283	387.378
-236.666	372.182
-236.049	371.185
-235.432	385.589
-234.816	381.993
-234.199	367.597
-233.583	384.401
-232.967	365.604
-232.35	376.808
-231.734	386.612
-231.118	371.816
-230.502	362.419
-229.886	385.423
-229.269	365.427
-228.653	363.031
-228.037	388.235
-227.421	398.638
-226.805	366.442
-226.19	382.646
-225.574	364.65
-224.958	362.654
-224.342	380.657
-223.726	379.061
-223.111	402.865
-222.495	384.269
-221.879	350.873
-221.264	395.476
-220.648	381.08
-220.033	374.284
-219.418	378.688
-218.803	382.091
-218.187	373.495
-217.572	386.699
-216.957	340.103
-216.341	394.907
-215.727	374.91
-215.112	377.514
-214.497	369.918
-213.882	329.922
-213.268	387.526
-212.653	368.729
-212.038	381.933
-211.423	363.537
-210.809	370.341
-210.194	359.145
-209.579	382.948
-208.966	358.952
-208.351	362.556
-207.736	350.36
-207.123	359.363
-206.508	369.967
-205.894	385.971
-205.28	380.175
-204.665	389.379
-204.052	389.582
-203.437	375.186
-202.824	354.19
-202.21	357.194
-201.597	376.998
-200.982	389.401
-200.369	406.005
-199.755	353.209
-199.142	376.013
-198.528	367.417
-197.915	376.42
-197.301	372.024
-196.688	368.228
-196.074	361.632
-195.461	371.836
-194.847	355.839
-194.234	370.843
-193.622	375.247
-193.008	370.451
-192.395	376.654
-191.781	395.458
-191.169	366.862
-190.556	371.066
-189.943	380.87
-189.33	371.673
-188.718	352.877
-188.105	355.081
-187.492	374.485
-186.88	363.089
-186.267	373.692
-185.654	386.296
-185.042	368.3
-184.43	378.904
-183.818	369.707
-183.206	355.311
-182.592	348.715
-181.98	380.519
-181.369	380.323
-180.757	390.126
-180.145	367.13
-179.533	349.934
-178.92	374.938
-178.308	366.342
-177.697	381.145
-177.085	395.149
-176.473	379.153
-175.862	365.157
-175.25	366.161
-174.639	373.764
-174.027	355.768
-173.416	355.772
-172.804	370.976
-172.193	370.38
-171.582	375.983
-170.97	386.387
-170.359	383.191
-169.748	380.995
-169.137	378.998
-168.526	357.402
-167.915	364.606
-167.303	356.41
-166.692	364.614
-166.081	371.417
-165.471	384.621
-164.861	387.425
-164.25	357.029
-163.639	371.033
-163.028	364.836
-162.418	329.44
-161.807	350.244
-161.197	393.448
-160.587	366.251
-159.976	381.055
-159.366	370.659
-158.755	336.263
-158.146	362.667
-157.535	349.07
-156.925	376.674
-156.316	364.878
-155.705	364.082
-155.095	377.286
-154.485	375.689
-153.876	388.493
-153.266	391.497
-152.655	349.301
-152.046	373.505
-151.436	361.308
-150.827	366.312
-150.218	353.316
-149.608	361.12
-148.999	361.524
-148.389	370.127
-147.78	373.931
-147.17	356.335
-146.562	373.539
-145.952	383.542
-145.344	355.346
-144.734	385.15
-144.126	336.354
-143.516	380.158
-142.908	373.161
-142.298	343.165
-141.69	374.569
-141.08	420.773
-140.472	359.777
-139.863	365.58
-139.255	357.384
-138.647	352.588
-138.037	334.592
-137.429	381.996
-136.82	365.799
-136.212	353.803
-135.604	347.407
-134.995	393.411
-134.387	360.614
-133.78	354.218
-133.171	375.222
-132.563	376.826
-131.955	371.63
-131.348	358.433
-130.739	370.437
-130.131	351.241
-129.524	378.845
-128.916	363.049
-128.309	367.852
-127.7	352.456
-127.093	367.06
-126.485	370.464
-125.878	372.668
-125.271	383.671
-124.664	351.875
-124.055	393.679
-123.448	344.483
-122.841	373.286
-122.234	344.09
-121.627	390.894
-121.02	396.098
-120.413	365.302
-119.806	394.505
-119.199	346.509
-118.592	363.113
-117.985	376.717
-117.378	359.921
-116.772	378.524
-116.165	356.728
-115.558	367.332
-114.952	364.536
-114.345	382.14
-113.739	379.943
-113.132	386.547
-112.526	349.551
-111.919	352.955
-111.313	362.359
-110.707	343.962
-110.101	354.166
-109.495	343.97
-108.889	360.174
-108.282	359.777
-107.676	379.981
-107.07	340.385
-106.465	390.589
-105.859	346.193
-105.253	382.996
-104.647	384
-104.042	343.004
-103.436	363.608
-102.83	352.612
-102.225	359.815
-101.62	335.019
-101.014	349.823
-100.408	362.827
-99.8038	368.831
-99.1982	358.434
-98.5926	370.038
-97.9882	390.242
-97.3826	356.646
-96.7771	369.049
-96.1728	403.053
-95.5673	362.457
-94.9631	382.261
-94.3577	368.465
-93.7524	370.468
-93.1483	385.872
-92.5431	372.476
-91.939	360.48
-91.3338	367.884
-90.7299	364.087
-90.1248	353.891
-89.5209	352.495
-88.9159	379.499
-88.312	359.703
-87.7071	387.306
-87.1033	363.71
-86.4996	369.714
-85.8948	343.118
-85.2912	345.921
-84.6864	359.125
-84.0828	350.129
-83.4793	364.533
-82.8747	345.537
-82.2712	362.14
-81.6678	397.144
-81.0633	368.148
-80.4599	357.352
-79.8566	381.556
-79.2522	377.559
-78.649	362.363
-78.0458	387.567
-77.4426	365.571
-76.8384	360.175
-76.2353	386.178
-75.6322	372.182
-75.0293	363.786
-74.4251	376.99
-73.8222	372.793
-73.2193	365.197
-72.6164	349.801
-72.0136	375.205
-71.4109	383.209
-70.8069	380.012
-70.2042	352.216
-69.6016	373.82
-68.9989	344.624
-68.3964	373.028
-67.7938	365.631
-67.1913	362.035
-66.5888	346.839
-65.9864	369.643
-65.384	353.847
-64.7816	344.85
-64.1793	349.654
-63.577	369.058
-62.9747	393.062
-62.3725	343.266
-61.7703	344.869
-61.1682	345.873
-60.566	373.277
-59.964	357.281
-59.3619	352.484
-58.7599	388.088
-58.158	363.892
-57.556	373.096
-56.9553	356.3
-56.3535	380.103
-55.7517	363.507
-55.1499	382.911
-54.5481	341.915
-53.9464	348.719
-53.3459	353.122
-52.7443	377.526
-52.1427	342.33
-51.5412	338.134
-50.9408	383.737
-50.3393	336.541
-49.7379	361.145
-49.1365	351.749
-48.5363	370.153
-47.935	371.756
-47.3337	362.76
-46.7336	344.564
-46.1323	358.568
-45.5312	371.172
-44.9312	381.375
-44.3301	379.779
-43.729	376.583
-43.1291	353.987
-42.5281	349.991
-41.9283	370.994
-41.3274	355.198
-40.7265	380.802
-40.1268	353.206
-39.526	382.41
-38.9264	365.413
-38.3256	364.017
-37.7261	360.221
-37.1254	343.025
-36.526	370.428
-35.9254	344.032
-35.326	376.636
-34.7255	344.84
-34.1261	357.244
-33.5269	364.447
-32.9264	354.851
-32.3272	364.255
-31.7269	371.059
-31.1278	365.863
-30.5287	373.266
-29.9284	347.47
-29.3294	365.474
-28.7304	348.478
-28.1303	347.482
-27.5314	369.285
-26.9325	351.089
-26.3325	326.693
-25.7337	358.697
-25.1349	340.7
-24.5362	343.504
-23.9363	371.308
-23.3377	363.712
-22.7391	361.116
-22.1405	355.719
-21.5419	336.723
-20.9423	356.727
-20.3438	361.931
-19.7454	354.735
-19.147	344.338
-18.5486	341.342
-17.9503	389.546
-17.352	347.35
-16.7526	354.954
-16.1543	379.357
-15.5562	376.761
-14.958	337.765
-14.3599	380.769
-13.7618	363.572
-13.1638	352.776
-12.5658	369.18
-11.9678	361.384
-11.3699	354.388
-10.772	354.391
-10.1742	366.595
-9.57636	347.199
-8.97858	363.603
-8.38084	365.407
-7.78314	365.61
-7.18547	355.214
-6.58784	374.018
-5.99141	350.222
-5.39385	376.826
-4.79632	380.229
-4.19884	345.033
-3.60139	340.037
-3.00398	342.441
-2.4066	354.844
-1.81043	358.848
-1.21312	348.252
-0.615856	364.456
-0.0186265	364.26
0.577403	374.463
1.17572	365.267
1.77168	365.871
2.3676	353.475
2.96581	353.879
3.56166	362.882
4.15747	365.286
4.75557	364.89
5.35131	375.894
5.94701	350.098
6.545	366.701
7.14063	378.905
7.73623	348.909
8.33411	379.913
8.92963	374.716
9.52511	352.72
10.1229	351.524
10.7183	346.928
11.3137	365.132
11.909	333.135
12.5066	375.939
13.1019	373.743
13.6971	349.547
14.2923	337.751
14.8898	380.754
15.4849	350.958
16.08	358.362
16.6751	343.366
17.2724	384.97
17.8674	325.973
18.4623	342.977
19.0572	357.581
19.6521	340.185
20.2492	355.788
20.844	342.192
21.4388	372.196
22.0335	350.6
22.6282	363.004
23.2228	350.607
23.8198	340.411
24.4143	370.015
25.0089	352.619
25.6034	388.823
26.1978	355.626
26.7923	365.03
27.3867	352.634
27.9833	365.438
28.5777	365.642
29.172	349.245
29.7662	359.649
30.3604	348.453
30.9546	354.657
31.5487	343.06
32.1428	354.864
32.7369	359.268
33.3309	364.272
33.9249	372.276
34.5189	348.879
35.1151	365.283
35.709	340.087
36.3029	358.491
36.8967	365.895
37.4905	364.498
38.0842	354.302
38.6779	366.706
39.2716	373.51
39.8652	364.114
40.4588	351.117
41.0524	379.121
41.6459	358.325
42.2394	367.929
42.8328	384.732
43.4263	357.336
44.0173	366.14
44.6107	377.544
45.204	370.148
45.7973	361.951
46.3905	364.155
46.9837	343.959
47.5769	348.763
48.17	338.567
48.7631	346.37
49.3561	355.974
49.9491	361.778
50.5421	362.582
51.1351	341.186
51.7257	354.389
52.3186	340.993
52.9114	371.397
53.5042	360.201
54.097	346.005
54.6897	368.608
55.2824	352.212
55.8727	351.016
56.4654	345.22
57.0579	373.223
57.6505	361.227
58.243	353.831
58.8355	367.835
59.4256	371.239
60.018	354.242
60.6104	337.046
61.2027	364.45
61.795	373.454
62.385	374.458
62.9772	357.661
63.5694	374.465
64.1615	347.069
64.7514	364.873
65.3434	362.677
65.9355	342.88
66.5275	345.084
67.1172	379.488
67.7091	356.692
68.301	365.095
68.8905	361.699
69.4824	346.103
70.0742	345.907
70.6659	365.511
71.2553	319.914
71.847	338.318
72.4387	371.722
73.028	346.726
73.6196	372.93
74.2111	381.533
74.8003	358.137
75.3918	327.741
75.9832	343.545
76.5723	348.749
77.1637	377.952
77.7527	333.756
78.344	350.16
78.9352	370.964
79.5242	347.967
80.1153	374.571
80.7042	343.575
81.2953	363.179
81.8864	345.983
82.4751	354.386
83.0661	334.19
83.6548	378.394
84.2457	357.798
84.8343	362.402
85.4251	375.805
86.0137	361.009
86.6045	340.013
87.1952	347.617
87.7836	345.821
88.3743	345.624
88.9626	358.628
89.5533	361.832
90.1415	351.436
90.7321	336.639
91.3203	375.843
91.9107	341.847
92.4989	347.251
93.0892	336.055
93.6773	354.458
94.2653	345.862
94.8556	346.666
95.4436	344.67
96.0338	345.074
96.6217	355.077
97.2118	362.681
97.7996	354.285
98.3874	334.089
98.9774	365.893
99.5651	346.896
100.155	371.7
100.743	341.104
101.33	354.508
101.92	362.311
102.508	366.715
103.097	354.519
103.685	333.923
104.272	383.327
104.862	343.53
105.449	337.334
106.037	357.538
106.626	358.142
107.213	340.346
107.801	335.749
108.39	354.153
108.977	332.357
109.564	346.561
110.154	332.365
110.741	368.768
111.328	363.572
111.915	356.576
112.504	342.98
113.091	366.784
113.678	365.387
114.264	354.591
114.854	357.595
115.44	344.799
116.027	370.602
116.614	373.806
117.203	337.21
117.789	344.014
118.376	370.218
118.962	336.821
119.549	358.425
120.137	360.029
120.724	368.033
121.31	352.437
121.897	371.04
122.483	373.244
123.072	365.448
123.658	359.452
124.244	370.055
124.83	344.659
125.416	365.863
126.002	368.467
126.588	357.271
127.177	338.874
127.763	361.078
128.349	362.282
128.935	362.486
129.521	375.49
130.106	340.693
130.692	364.897
131.278	385.701
131.864	358.105
132.449	366.909
133.035	354.112
133.623	342.116
134.209	348.52
134.794	375.724
135.38	366.328
135.965	361.931
136.551	342.735
137.136	362.539
137.722	334.743
138.307	356.746
138.892	354.75
139.477	351.554
140.063	350.358
140.648	392.362
141.233	345.165
141.818	338.169
142.403	337.173
142.988	357.177
143.574	373.781
144.159	350.584
144.741	369.388
145.326	380.592
145.911	335.996
146.496	360.4
147.081	343.403
147.665	360.807
148.25	372.011
148.835	354.815
149.42	363.218
150.004	373.622
150.589	352.226
151.171	340.03
151.756	347.834
152.34	358.837
152.925	341.041
153.509	344.645
154.094	347.649
154.678	356.653
155.26	344.856
155.844	361.26
156.429	347.264
157.013	357.468
157.597	365.272
158.181	369.275
158.763	378.279
159.347	372.483
159.931	366.287
160.515	343.49
161.097	353.294
161.681	371.244
162.265	379.523
162.849	347.585
163.432	362.474
164.014	368.788
164.598	358.902
165.181	333.531
165.763	338.246
166.346	372.832
166.93	349.24
167.514	340.906
168.095	349.631
168.679	347.407
169.262	342.381
169.843	334.315
170.427	357.839
171.01	349.014
171.591	359.303
172.174	362.841
172.758	363.839
173.339	346.379
173.922	355.68
174.505	336.689
175.086	359.928
175.669	360.853
176.252	368.295
176.833	365.991
177.416	373.685
177.996	350.746
178.579	348.174
179.162	350.276
179.743	366.014
180.326	348.191
180.906	341.853
181.489	346.122
182.069	354.268
182.652	335.155
183.232	347.194
183.815	359.294
184.398	356.802
184.978	346.656
185.56	363.104
186.141	357.648
186.723	358.942
187.303	350.938
187.885	343.209
188.465	353.028
189.048	362.587
189.628	352.556
190.21	358.536
190.79	340.542
191.372	350.849
191.952	354.66
192.532	341.32
193.114	354.895
193.693	341.468
194.275	349.216
194.855	354.141
195.437	347.562
196.017	347.046
196.596	362.111
197.178	356.116
197.758	352.329
198.339	346.618
198.919	352.475
199.498	366.884
200.08	350.89
200.659	359.839
201.238	365.973
201.82	367.318
202.399	345.977
202.978	356.039
203.56	361.419
204.139	363.814
204.718	357.412
205.299	355.297
205.878	358.019
206.457	352.015
207.038	351.551
207.617	342.746
208.196	339.905
208.777	369.505
209.356	342.1
209.935	355.148
210.514	351.27
211.094	355.434
211.673	355.596
212.252	353.304
212.83	359.438
213.411	365.386
213.99	363.113
214.568	338.717
215.147	331.702
215.725	326.733
216.306	348.112
216.884	348.101
217.462	355.619
218.041	361.84
218.619	376.914
219.197	371.662
219.778	365.321
219.803	364.987
220.388	346.189
220.972	345.191
221.557	339.193
222.142	355.195
222.727	360.397
223.312	368.799
223.897	336.6
224.481	375.802
225.066	349.004
225.651	363.406
226.235	349.408
226.82	343.21
227.402	341.212
227.987	337.014
228.571	343.816
229.155	358.218
229.74	363.22
230.324	347.822
230.909	346.424
231.493	356.226
232.077	362.028
232.659	351.43
233.243	342.232
233.827	362.234
234.412	355.636
234.996	324.438
235.58	364.24
236.164	331.042
236.745	352.844
237.329	354.445
237.913	338.847
238.497	369.249
239.081	347.451
239.662	366.453
240.246	336.255
240.83	352.657
241.414	340.659
241.997	349.461
242.579	340.263
243.162	338.665
243.746	359.667
244.329	351.069
244.91	348.071
245.494	349.473
246.077	360.675
246.661	352.077
247.242	336.879
247.825	367.081
248.408	343.883
248.989	351.085
249.573	356.287
250.156	321.489
250.739	359.09
251.32	351.892
251.903	338.094
252.486	370.896
253.066	330.498
253.649	360.7
254.232	354.502
254.813	371.304
255.396	329.106
255.979	349.508
256.559	366.71
257.142	359.912
257.722	367.514
258.305	356.116
258.888	342.518
259.468	344.12
260.05	346.322
260.633	332.124
261.213	341.726
261.796	361.128
262.376	352.13
262.958	350.132
263.538	340.734
264.121	378.335
264.703	364.737
265.283	349.539
265.865	357.741
266.445	360.143
267.027	361.545
267.607	342.547
268.189	362.749
268.769	352.151
269.351	341.753
269.931	334.755
270.512	361.157
271.092	340.159
271.674	366.761
272.254	343.363
272.835	336.365
273.415	330.767
273.997	355.169
274.576	364.971
275.158	332.573
275.737	363.375
276.319	364.177
276.898	342.979
277.479	364.38
278.059	341.182
278.638	338.984
279.219	345.386
279.798	344.188
280.38	362.99
280.959	358.192
281.54	325.194
282.119	351.796
282.698	313.798
283.279	345.8
283.858	350.002
284.439	363.404
285.018	353.006
285.596	355.808
286.177	369.61
286.756	341.612
287.335	329.014
287.916	343.616
288.494	360.018
289.073	338.82
289.654	364.822
290.232	356.624
290.811	357.625
291.391	344.627
291.97	373.629
292.548	357.831
293.126	334.633
293.707	346.635
294.285	327.237
294.863	372.239
295.444	367.441
296.022	347.843
296.6	348.845
297.178	331.847
297.758	350.049
298.336	344.851
298.914	342.453
299.492	352.055
300.072	347.457
300.65	365.059
301.228	356.661
301.806	335.863
302.383	335.865
302.963	351.067
303.541	347.669
304.119	350.87
304.696	343.872
305.274	362.074
305.854	367.476
306.431	354.878
307.009	358.88
307.586	366.282
308.164	319.884
308.741	360.886
309.318	358.288
309.898	355.09
310.475	357.692
311.052	342.094
311.629	348.296
312.207	351.298
312.784	336.5
313.361	320.302
313.938	368.504
314.515	340.906
315.094	344.108
315.671	368.31
316.248	348.312
316.825	369.714
