#Acq. time (s)=	0.15444
#Accumulations=	3
#Range (cm-¹)=	-1230...1250
#Windows=	5
#Autofocus=	Off
#AutoExposure=	Off
#Spike filter=	Multiple accum.
#Delay time (s)=	0
#Binning=	1
#Readout mode=	Signal
#DeNoise=	Off
#ICS correction=	Off
#Dark correction=	Off
#Inst. Process=	Off
#Instrument=	LabRAM HR Evol
#Detector=	Emulator CCD
#Objective=	x100
#Grating=	1800 gr/mm
#ND Filter=	100%
#Laser (nm)=	512 
#Slit=	150.001
#Hole=	70.0087
#Project=	A
#Sample=	B
#Site=	C
#Title=	D_60
#Remark=	
#Date=	18.10.2017 14:24
#Acquired=	18.10.2017 14:24:01
-1229.32	437.5
-1228.62	439.006
-1227.93	450.011
-1227.24	473.017
-1226.55	416.022
-1225.86	440.028
-1225.16	424.034
-1224.47	407.039
-1223.78	426.545
-1223.09	449.55
-1222.4	417.556
-1221.7	455.061
-1221.01	418.067
-1220.32	441.073
-1219.63	451.578
-1218.94	416.084
-1218.25	431.589
-1217.55	427.095
-1216.86	456.101
-1216.17	424.106
-1215.48	428.112
-1214.79	396.117
-1214.1	402.623
-1213.41	420.628
-1212.72	405.134
-1212.02	474.14
-1211.33	399.145
-1210.64	444.651
-1209.95	427.656
-1209.26	458.162
-1208.57	440.168
-1207.88	408.173
-1207.19	462.679
-1206.5	453.684
-1205.81	460.69
-1205.12	419.695
-1204.43	437.201
-1203.74	429.707
-1203.05	398.212
-1202.36	419.218
-1201.67	422.223
-1200.98	417.729
-1200.29	446.235
-1199.6	411.24
-1198.91	410.246
-1198.22	424.251
-1197.53	445.257
-1196.84	450.762
-1196.15	418.268
-1195.46	454.274
-1194.77	405.279
-1194.08	427.285
-1193.39	405.29
-1192.7	419.296
-1192.01	398.302
-1191.32	406.807
-1190.64	415.313
-1189.95	404.818
-1189.26	396.324
-1188.57	434.329
-1187.88	406.335
-1187.19	437.341
-1186.5	393.346
-1185.81	389.352
-1185.13	409.857
-1184.44	431.863
-1183.75	405.369
-1183.06	425.874
-1182.37	442.88
-1181.68	414.385
-1180.99	444.891
-1180.31	478.396
-1179.62	424.902
-1178.93	418.408
-1178.24	458.913
-1177.55	431.419
-1176.87	464.424
-1176.18	434.93
-1175.49	419.936
-1174.8	416.441
-1174.11	398.947
-1173.43	396.952
-1172.74	430.458
-1172.05	417.964
-1171.36	396.469
-1170.68	412.475
-1169.99	425.48
-1169.3	411.486
-1168.61	407.991
-1167.93	406.497
-1167.24	385.503
-1166.55	397.508
-1165.87	400.514
-1165.18	454.019
-1164.49	406.525
-1163.81	381.53
-1163.12	422.536
-1162.43	388.542
-1161.75	400.547
-1161.06	419.553
-1160.37	414.558
-1159.69	397.564
-1159	393.57
-1158.31	438.575
-1157.63	411.581
-1156.94	428.586
-1156.25	418.592
-1155.57	418.598
-1154.88	395.603
-1154.2	402.109
-1153.51	421.614
-1152.82	401.62
-1152.14	390.625
-1151.45	389.631
-1150.77	415.137
-1150.08	414.642
-1149.4	453.148
-1148.71	397.653
-1148.03	432.659
-1147.34	412.664
-1146.65	448.67
-1145.97	411.176
-1145.28	429.681
-1144.6	385.187
-1143.91	404.692
-1143.23	437.198
-1142.54	410.204
-1141.86	416.709
-1141.17	425.715
-1140.49	425.72
-1139.8	407.726
-1139.12	395.732
-1138.44	429.237
-1137.75	384.743
-1137.07	431.748
-1136.38	425.754
-1135.7	396.759
-1135.01	460.265
-1134.33	416.271
-1133.64	430.276
-1132.96	431.282
-1132.28	436.287
-1131.59	389.293
-1130.91	378.799
-1130.22	399.304
-1129.54	419.81
-1128.86	419.315
-1128.17	429.321
-1127.49	426.326
-1126.81	397.832
-1126.12	381.838
-1125.44	378.843
-1124.75	373.849
-1124.07	396.854
-1123.39	404.36
-1122.71	387.366
-1122.02	391.371
-1121.34	391.877
-1120.66	378.882
-1119.97	407.888
-1119.29	412.893
-1118.61	390.399
-1117.92	375.905
-1117.24	420.41
-1116.56	440.416
-1115.88	413.921
-1115.19	462.427
-1114.51	447.933
-1113.83	373.938
-1113.15	372.944
-1112.46	451.949
-1111.78	391.455
-1111.1	381.46
-1110.42	414.966
-1109.73	401.972
-1109.05	387.477
-1108.37	398.483
-1107.69	444.988
-1107.01	413.994
-1106.32	403.5
-1105.64	401.005
-1104.96	397.011
-1104.28	391.516
-1103.6	388.022
-1102.92	409.527
-1102.23	378.033
-1101.55	408.539
-1100.87	388.044
-1100.19	402.55
-1099.51	391.555
-1098.83	382.561
-1098.15	402.567
-1097.46	396.072
-1096.78	394.078
-1096.1	397.083
-1095.42	394.089
-1094.74	447.094
-1094.06	408.6
-1093.38	417.106
-1092.7	368.611
-1092.02	399.617
-1091.34	449.122
-1090.66	375.128
-1089.98	444.134
-1089.3	370.139
-1088.62	388.645
-1087.93	406.65
-1087.25	389.156
-1086.57	415.161
-1085.89	395.167
-1085.21	394.673
-1084.53	403.178
-1083.85	387.684
-1083.17	388.189
-1082.49	418.695
-1081.82	376.201
-1081.14	434.206
-1080.45	388.712
-1079.78	408.217
-1079.1	376.223
-1078.42	393.229
-1077.74	399.234
-1077.06	398.24
-1076.38	388.245
-1075.7	397.751
-1075.02	405.256
-1074.34	409.762
-1073.66	388.268
-1072.98	372.773
-1072.3	387.279
-1071.63	378.784
-1070.95	440.79
-1070.27	384.296
-1069.59	421.801
-1068.91	410.307
-1068.23	424.312
-1067.55	403.818
-1066.88	440.323
-1066.2	374.329
-1065.52	425.835
-1064.84	412.34
-1064.16	394.346
-1063.48	377.851
-1062.81	424.357
-1062.13	391.863
-1061.45	386.868
-1060.77	396.374
-1060.09	380.379
-1059.41	415.885
-1058.74	397.89
-1058.06	373.396
-1057.38	421.402
-1056.7	401.407
-1056.03	411.913
-1055.35	416.918
-1054.67	396.424
-1053.99	403.93
-1053.32	367.435
-1052.64	380.441
-1051.96	373.446
-1051.29	376.452
-1050.61	431.957
-1049.93	396.963
-1049.25	363.469
-1048.58	404.474
-1047.9	369.98
-1047.22	424.485
-1046.55	394.991
-1045.87	415.997
-1045.19	391.502
-1044.52	425.008
-1043.84	392.513
-1043.16	370.519
-1042.49	424.024
-1041.81	393.03
-1041.14	383.536
-1040.46	394.041
-1039.78	369.547
-1039.11	407.052
-1038.43	399.058
-1037.75	371.564
-1037.08	402.569
-1036.4	382.575
-1035.73	420.58
-1035.05	395.086
-1034.38	363.591
-1033.7	423.097
-1033.03	368.603
-1032.35	384.608
-1031.67	444.614
-1031	391.119
-1030.32	360.625
-1029.65	430.631
-1028.97	424.136
-1028.3	377.142
-1027.62	393.647
-1026.95	386.153
-1026.27	362.658
-1025.6	400.164
-1024.92	384.67
-1024.25	384.175
-1023.57	382.681
-1022.9	366.686
-1022.22	400.692
-1021.55	382.698
-1020.87	390.703
-1020.2	365.709
-1019.53	394.714
-1018.85	405.72
-1018.18	359.225
-1017.5	374.231
-1016.83	446.237
-1016.15	391.742
-1015.48	390.748
-1014.81	419.753
-1014.13	408.759
-1013.46	373.265
-1012.78	402.27
-1012.11	355.776
-1011.44	387.281
-1010.76	409.787
-1010.09	390.793
-1009.42	407.798
-1008.74	393.804
-1008.07	378.809
-1007.4	428.315
-1006.72	400.82
-1006.05	396.326
-1005.38	387.332
-1004.7	358.837
-1004.03	409.343
-1003.36	370.348
-1002.68	385.854
-1002.01	355.86
-1001.34	405.365
-1000.66	428.871
-999.992	419.376
-999.319	367.382
-998.647	376.887
-997.974	365.893
-997.301	396.899
-996.629	385.904
-995.957	374.91
-995.285	380.915
-994.612	370.921
-993.94	379.927
-993.268	391.932
-992.595	393.438
-991.923	401.943
-991.252	420.949
-990.58	372.954
-989.908	366.96
-989.236	385.966
-988.565	401.471
-987.893	387.977
-987.221	379.982
-986.549	382.988
-985.878	385.494
-985.206	399.999
-984.535	355.005
-983.864	394.51
-983.192	400.016
-982.521	411.021
-981.85	394.527
-981.179	388.533
-980.507	405.538
-979.837	353.044
-979.166	381.049
-978.494	396.555
-977.824	386.061
-977.153	379.066
-976.483	378.572
-975.812	387.077
-975.142	416.583
-974.471	359.088
-973.801	356.094
-973.13	354.1
-972.46	391.105
-971.789	402.111
-971.119	357.116
-970.448	372.622
-969.779	392.128
-969.108	407.633
-968.439	386.639
-967.768	377.144
-967.099	367.15
-966.429	368.155
-965.759	381.161
-965.089	371.667
-964.419	393.672
-963.75	369.178
-963.081	382.183
-962.41	395.189
-961.741	417.195
-961.072	416.7
-960.402	362.206
-959.733	351.211
-959.064	422.217
-958.394	371.222
-957.725	349.228
-957.057	356.234
-956.388	411.239
-955.718	405.745
-955.05	395.25
-954.381	351.756
-953.712	386.762
-953.044	386.267
-952.374	385.273
-951.706	363.778
-951.038	361.284
-950.369	362.789
-949.701	396.795
-949.033	364.301
-948.365	392.306
-947.697	390.312
-947.027	410.817
-946.359	371.823
-945.691	373.829
-945.023	356.334
-944.355	384.84
-943.688	348.345
-943.02	385.351
-942.352	354.856
-941.684	387.362
-941.017	353.868
-940.349	346.373
-939.681	382.379
-939.014	399.384
-938.346	359.39
-937.679	389.896
-937.011	346.401
-936.344	382.407
-935.678	391.912
-935.011	372.418
-934.344	395.924
-933.676	387.929
-933.009	421.935
-932.342	391.44
-931.675	375.946
-931.008	418.451
-930.342	356.457
-929.675	394.463
-929.008	396.468
-928.342	366.474
-927.675	387.979
-927.009	398.485
-926.343	387.991
-925.676	370.496
-925.009	380.002
-924.344	359.007
-923.677	403.013
-923.011	388.018
-922.346	404.024
-921.679	372.53
-921.013	381.535
-920.348	377.041
-919.682	362.546
-919.015	344.552
-918.35	392.558
-917.684	381.563
-917.018	347.569
-916.353	377.574
-915.687	357.58
-915.023	381.085
-914.357	416.591
-913.692	359.597
-913.026	379.602
-912.362	363.608
-911.696	410.613
-911.031	386.619
-910.366	360.125
-909.701	405.63
-909.036	356.636
-908.372	363.641
-907.706	371.147
-907.042	387.152
-906.376	365.158
-905.712	375.664
-905.047	396.669
-904.383	381.675
-903.719	373.68
-903.054	403.686
-902.39	357.692
-901.726	394.697
-901.061	408.203
-900.397	354.708
-899.734	394.714
-899.069	367.719
-898.405	382.225
-897.741	352.731
-897.077	392.736
-896.413	342.742
-895.75	362.747
-895.086	359.753
-894.422	420.759
-893.758	399.264
-893.095	358.27
-892.432	381.275
-891.768	374.781
-891.104	341.786
-890.441	386.792
-889.778	380.298
-889.115	369.303
-888.452	394.809
-887.789	400.814
-887.126	354.82
-886.463	379.826
-885.799	353.831
-885.136	361.837
-884.474	414.842
-883.811	369.848
-883.148	359.853
-882.486	400.859
-881.823	345.865
-881.161	377.37
-880.498	381.376
-879.836	385.381
-879.173	362.887
-878.511	351.893
-877.849	402.898
-877.187	387.404
-876.524	345.909
-875.862	357.915
-875.2	377.921
-874.539	345.926
-873.877	375.932
-873.215	361.937
-872.553	350.943
-871.891	359.948
-871.229	360.454
-870.568	395.96
-869.907	383.965
-869.245	343.471
-868.584	379.976
-867.922	377.482
-867.26	394.487
-866.6	356.993
-865.939	374.999
-865.277	350.004
-864.616	391.01
-863.956	377.515
-863.294	353.021
-862.633	355.527
-861.973	352.532
-861.312	390.038
-860.651	362.043
-859.99	380.049
-859.33	386.555
-858.669	394.56
-858.009	411.566
-857.348	356.571
-856.687	418.577
-856.027	361.082
-855.367	341.088
-854.707	406.094
-854.046	352.599
-853.386	358.105
-852.726	373.61
-852.066	389.116
-851.406	375.622
-850.746	355.127
-850.086	384.133
-849.426	418.138
-848.767	359.144
-848.107	364.149
-847.448	355.155
-846.789	361.661
-846.128	338.166
-845.469	416.172
-844.809	377.177
-844.15	376.183
-843.492	341.189
-842.832	339.194
-842.173	342.2
-841.513	339.205
-840.854	363.211
-840.196	348.216
-839.537	348.222
-838.877	352.728
-838.219	384.233
-837.56	355.239
-836.901	379.244
-836.242	363.75
-835.584	414.756
-834.926	377.261
-834.267	417.267
-833.608	335.272
-832.95	352.278
-832.292	373.283
-831.634	384.789
-830.975	350.795
-830.317	343.8
-829.659	387.306
-829.001	386.811
-828.343	343.317
-827.686	384.323
-827.028	336.328
-826.37	355.334
-825.711	364.839
-825.054	368.345
-824.396	390.85
-823.739	360.856
-823.081	359.862
-822.424	364.867
-821.766	348.373
-821.109	359.378
-820.452	369.384
-819.794	358.89
-819.137	343.395
-818.48	356.901
-817.823	353.906
-817.166	411.412
-816.509	385.417
-815.853	357.923
-815.196	363.429
-814.539	375.934
-813.882	386.94
-813.225	391.945
-812.568	333.451
-811.912	350.957
-811.255	359.462
-810.6	373.968
-809.943	365.473
-809.286	353.479
-808.63	354.984
-807.973	401.99
-807.318	363.996
-806.662	388.001
-806.005	372.007
-805.349	404.512
-804.694	343.518
-804.038	369.524
-803.382	349.529
-802.727	374.535
-802.07	407.54
-801.414	354.546
-800.76	357.552
-800.104	363.557
-799.448	335.563
-798.793	359.068
-798.137	385.074
-797.481	373.579
-796.827	386.585
-796.171	354.591
-795.517	372.596
-794.861	342.602
-794.207	360.607
-793.551	374.113
-792.897	350.118
-792.241	372.624
-791.586	370.63
-790.932	343.635
-790.278	356.641
-789.622	378.646
-788.968	374.652
-788.313	376.658
-787.659	339.663
-787.004	348.169
-786.35	340.674
-785.695	340.68
-785.041	365.686
-784.388	382.191
-783.733	363.197
-783.079	344.702
-782.425	355.208
-781.771	388.713
-781.117	378.719
-780.464	348.725
-779.809	413.23
-779.156	378.736
-778.502	357.741
-777.849	370.747
-777.194	347.753
-776.541	331.758
-775.888	332.764
-775.235	336.769
-774.581	374.775
-773.927	362.78
-773.274	332.786
-772.622	391.792
-771.969	397.797
-771.316	337.803
-770.662	365.808
-770.009	391.814
-769.356	353.82
-768.703	343.825
-768.051	357.831
-767.398	377.836
-766.745	345.842
-766.093	355.847
-765.44	409.353
-764.788	352.859
-764.136	401.364
-763.483	370.87
-762.831	386.875
-762.179	393.381
-761.526	349.387
-760.874	383.392
-760.222	361.398
-759.57	361.403
-758.918	344.909
-758.266	390.914
-757.614	376.92
-756.962	348.926
-756.31	354.931
-755.658	327.937
-755.006	382.942
-754.356	360.948
-753.704	356.454
-753.052	356.959
-752.4	358.965
-751.749	361.47
-751.097	331.976
-750.447	350.981
-749.795	372.487
-749.144	356.493
-748.493	358.998
-747.842	380.004
-747.191	343.009
-746.54	404.515
-745.889	358.521
-745.239	343.026
-744.588	348.032
-743.936	368.037
-743.287	346.043
-742.636	388.048
-741.985	349.554
-741.335	335.06
-740.684	341.065
-740.034	355.071
-739.383	332.576
-738.733	340.082
-738.083	348.088
-737.432	354.093
-736.783	358.099
-736.133	351.104
-735.483	381.11
-734.833	369.615
-734.183	328.121
-733.533	348.127
-732.884	365.132
-732.233	365.638
-731.584	345.143
-730.934	345.149
-730.285	330.155
-729.635	384.16
-728.986	349.666
-728.337	361.171
-727.687	361.677
-727.038	355.183
-726.388	401.188
-725.74	331.194
-725.091	346.199
-724.441	363.705
-723.792	340.71
-723.144	384.716
-722.494	361.222
-721.846	358.227
-721.197	384.233
-720.549	366.238
-719.899	363.744
-719.251	375.25
-718.603	359.255
-717.955	388.261
-717.305	374.266
-716.657	327.272
-716.009	348.277
-715.361	383.283
-714.713	336.289
-714.065	342.794
-713.416	404.3
-712.768	341.305
-712.12	355.811
-711.472	328.317
-710.825	352.322
-710.177	361.828
-709.529	386.333
-708.882	334.339
-708.234	343.344
-707.587	345.85
-706.939	341.356
-706.292	366.361
-705.644	351.367
-704.997	347.372
-704.349	376.878
-703.702	379.884
-703.055	331.389
-702.408	370.395
-701.761	342.9
-701.113	327.406
-700.466	381.911
-699.819	377.417
-699.172	334.423
-698.525	365.928
-697.878	392.934
-697.233	369.439
-696.586	363.445
-695.939	362.451
-695.292	350.456
-694.646	342.462
-694	365.467
-693.354	335.473
-692.707	364.978
-692.061	368.484
-691.414	346.49
-690.769	361.495
-690.122	360.001
-689.476	381.006
-688.831	355.512
-688.185	339.018
-687.538	345.523
-686.893	344.529
-686.247	348.534
-685.601	360.04
-684.956	363.545
-684.31	386.051
-683.664	394.557
-683.02	323.562
-682.374	357.568
-681.729	357.573
-681.083	380.579
-680.437	394.585
-679.793	397.09
-679.147	388.096
-678.503	367.101
-677.857	356.607
-677.213	362.612
-676.567	396.618
-675.923	379.624
-675.277	362.629
-674.633	386.635
-673.989	326.64
-673.344	400.146
-672.7	366.652
-672.054	327.657
-671.41	373.663
-670.766	323.668
-670.121	354.674
-669.477	390.679
-668.832	331.685
-668.189	349.691
-667.545	377.696
-666.9	371.202
-666.256	361.707
-665.613	350.713
-664.969	325.719
-664.324	328.724
-663.681	347.23
-663.037	336.735
-662.394	356.241
-661.749	355.746
-661.106	386.752
-660.463	346.758
-659.82	378.763
-659.176	375.769
-658.532	344.774
-657.889	363.78
-657.246	365.286
-656.603	335.791
-655.96	328.797
-655.317	375.302
-654.674	361.308
-654.031	353.814
-653.388	365.819
-652.745	398.825
-652.103	408.83
-651.459	364.836
-650.816	354.841
-650.173	358.347
-649.531	361.853
-648.888	365.858
-648.246	339.364
-647.605	342.869
-646.962	351.375
-646.32	359.881
-645.677	330.886
-645.035	361.392
-644.393	333.397
-643.751	361.903
-643.108	402.408
-642.466	354.914
-641.824	369.42
-641.183	379.925
-640.541	343.931
-639.899	392.936
-639.258	364.442
-638.616	360.948
-637.974	334.953
-637.333	336.959
-636.691	335.464
-636.05	399.47
-635.408	363.975
-634.768	329.981
-634.126	333.987
-633.484	390.992
-632.844	352.498
-632.203	369.003
-631.561	390.509
-630.921	324.015
-630.28	332.02
-629.638	354.526
-628.998	355.031
-628.357	364.037
-627.716	360.542
-627.076	380.548
-626.435	378.554
-625.795	371.059
-625.154	345.065
-624.514	358.07
-623.873	344.576
-623.234	324.582
-622.593	368.587
-621.953	368.593
-621.312	367.098
-620.673	347.104
-620.032	324.109
-619.393	334.115
-618.752	386.621
-618.113	339.126
-617.472	338.148
-616.833	352.451
-616.194	325.631
-615.553	342.587
-614.914	367.178
-614.274	360.135
-613.635	375.706
-612.996	371.943
-612.356	324.62
-611.717	333.497
-611.078	368.195
-610.439	331.184
-609.799	359.559
-609.16	379.385
-608.521	342.045
-607.883	354.396
-607.243	371.455
-606.604	352.287
-605.966	385.143
-605.327	324.221
-604.687	349.67
-604.049	367.242
-603.41	352.233
-602.772	351.095
-602.134	373.923
-601.495	351.959
-600.857	356.22
-600.219	349.375
-599.58	374.761
-598.941	347.796
-598.303	373.914
-597.665	359.132
-597.027	368.233
-596.389	364.609
-595.751	361.684
-595.113	353.753
-594.476	359.519
-593.838	382.199
-593.2	340.121
-592.562	335.003
-591.925	342.316
-591.287	339.672
-590.649	346.208
-590.013	352.121
-589.375	327.567
-588.738	353.493
-588.101	355.166
-587.463	330.924
-586.826	336.458
-586.188	346.65
-585.552	357.597
-584.915	339.115
-584.278	374.984
-583.641	342.916
-583.004	370.434
-582.368	344.547
-581.731	327.208
-581.094	349.39
-580.457	361.186
-579.821	345.175
-579.184	340.736
-578.547	338.623
-577.912	356.015
-577.275	344.76
-576.638	355.358
-576.003	336.147
-575.366	334.841
-574.73	340.84
-574.094	336.614
-573.458	343.854
-572.821	335.265
-572.186	340.094
-571.55	338.262
-570.915	355.567
-570.278	369.396
-569.643	369.717
-569.007	354.826
-568.372	350.496
-567.736	370.662
-567.101	353.822
-566.465	339.162
-565.83	339.272
-565.194	342.964
-564.56	344.598
-563.924	344.822
-563.289	346.019
-562.654	355.34
-562.019	353.175
-561.384	366.021
-560.748	358.643
-560.114	347.055
-559.48	353.152
-558.844	365.011
-558.21	350.524
-557.575	326.805
-556.94	329.189
-556.306	341.96
-555.672	349.018
-555.037	336.039
-554.402	321.713
-553.768	341.582
-553.134	360.171
-552.75	348.933
-552.11	332.433
-551.469	391.434
-550.829	330.434
-550.187	337.435
-549.546	331.435
-548.906	339.936
-548.265	398.937
-547.624	372.437
-546.984	356.438
-546.344	373.938
-545.704	377.939
-545.063	333.94
-544.423	381.94
-543.783	335.941
-543.143	318.441
-542.502	325.442
-541.863	333.443
-541.222	363.943
-540.583	336.444
-539.942	341.944
-539.303	343.445
-538.663	341.445
-538.024	324.446
-537.384	361.447
-536.744	322.447
-536.105	323.448
-535.465	332.448
-534.826	329.449
-534.187	373.45
-533.547	361.95
-532.908	327.451
-532.269	345.451
-531.629	343.952
-530.99	327.453
-530.352	327.453
-529.712	346.954
-529.073	329.454
-528.434	362.955
-527.796	325.956
-527.156	343.456
-526.518	359.457
-525.879	356.457
-525.241	365.458
-524.601	348.458
-523.963	345.459
-523.325	342.96
-522.687	371.46
-522.048	321.461
-521.409	338.461
-520.771	376.962
-520.133	358.963
-519.495	338.463
-518.857	372.964
-518.219	313.964
-517.581	322.465
-516.943	363.966
-516.305	340.466
-515.668	352.967
-515.03	383.967
-514.391	326.468
-513.753	339.968
-513.116	379.969
-512.478	340.47
-511.841	346.47
-511.203	333.471
-510.566	313.471
-509.93	379.472
-509.292	358.473
-508.655	330.973
-508.018	355.474
-507.38	315.474
-506.743	329.475
-506.106	379.976
-505.469	377.976
-504.832	356.977
-504.195	327.477
-503.558	325.478
-502.922	353.478
-502.285	337.479
-501.648	349.98
-501.011	377.48
-500.375	339.981
-499.739	371.481
-499.102	378.982
-498.466	320.483
-497.829	332.483
-497.193	339.984
-496.557	316.484
-495.921	353.485
-495.284	324.486
-494.649	331.486
-494.013	337.987
-493.376	330.987
-492.741	334.988
-492.105	371.489
-491.469	352.989
-490.834	332.49
-490.198	315.99
-489.561	348.491
-488.927	340.491
-488.291	316.492
-487.656	317.493
-487.02	332.993
-486.384	319.494
-485.749	325.494
-485.113	398.495
-484.479	332.496
-483.843	339.496
-483.209	343.997
-482.573	339.497
-481.939	356.998
-481.303	313.499
-480.669	381.499
-480.033	337.5
-479.399	336
-478.764	321.501
-478.129	337.001
-477.495	322.502
-476.86	311.503
-476.226	349.503
-475.591	321.504
-474.957	332.504
-474.323	350.005
-473.688	352.506
-473.054	320.506
-472.42	352.007
-471.785	317.007
-471.151	343.508
-470.518	349.509
-469.883	332.009
-469.249	315.51
-468.616	336.51
-467.982	313.011
-467.348	364.512
-466.714	352.012
-466.081	331.013
